# Radiation power file
# File columns: 
# 	 1 Incidence zenith angle (deg) 
# 	 2 Incidence azimuth angle (deg) 
# 	 3 Frequency (rad/s)
# 	 4 Photon's relative power intensity 
# 	 5 Photon's relative energy flux 
# 	 6 Mean distance (um) traveled by photon 
# 
0.00  	0.00  	6.2788e+14	6.616000e-02	9.666945e-01	6.557622e+01
0.00  	0.00  	6.1776e+14	6.562000e-02	9.643703e-01	6.637015e+01
0.00  	0.00  	6.0780e+14	6.557000e-02	9.675648e-01	6.527494e+01
0.00  	0.00  	5.9800e+14	6.269000e-02	9.683875e-01	6.233270e+01
0.00  	0.00  	5.8835e+14	6.340000e-02	9.693425e-01	5.780763e+01
0.00  	0.00  	5.7887e+14	5.571000e-02	9.781025e-01	4.267130e+01
0.00  	0.00  	5.6953e+14	4.729000e-02	9.837866e-01	2.350391e+01
0.00  	0.00  	5.6035e+14	4.141000e-02	9.957409e-01	3.004852e+00
0.00  	0.00  	5.5131e+14	4.121000e-02	9.988502e-01	2.966466e-03
0.00  	0.00  	5.4242e+14	4.065000e-02	9.968523e-01	6.786608e-01
0.00  	0.00  	5.3367e+14	4.169000e-02	9.986273e-01	2.610792e-01
0.00  	0.00  	5.2507e+14	4.471000e-02	9.892286e-01	1.213920e+01
0.00  	0.00  	5.1660e+14	4.834000e-02	9.815133e-01	2.587512e+01
0.00  	0.00  	5.0827e+14	5.171000e-02	9.775461e-01	3.488541e+01
0.00  	0.00  	5.0007e+14	5.089000e-02	9.803067e-01	2.836311e+01
0.00  	0.00  	4.9201e+14	5.515000e-02	9.716309e-01	3.846269e+01
0.00  	0.00  	4.8408e+14	5.964000e-02	9.675156e-01	5.271700e+01
0.00  	0.00  	4.7627e+14	6.207000e-02	9.622184e-01	5.928297e+01
0.00  	0.00  	4.6859e+14	6.780000e-02	9.604786e-01	6.718880e+01
0.00  	0.00  	4.6103e+14	6.837000e-02	9.547450e-01	7.357158e+01
0.00  	0.00  	4.5360e+14	6.640000e-02	9.588997e-01	6.993442e+01
0.00  	0.00  	4.4629e+14	6.614000e-02	9.592231e-01	6.565170e+01
0.00  	0.00  	4.3909e+14	6.098000e-02	9.613875e-01	5.756528e+01
0.00  	0.00  	4.3201e+14	6.657000e-02	9.516399e-01	7.050476e+01
0.00  	0.00  	4.2504e+14	6.900000e-02	9.470574e-01	7.936114e+01
0.00  	0.00  	4.1819e+14	6.975000e-02	9.443502e-01	8.470303e+01
0.00  	0.00  	4.1144e+14	7.036000e-02	9.411717e-01	8.903401e+01
0.00  	0.00  	4.0481e+14	7.044000e-02	9.422983e-01	8.436681e+01
0.00  	0.00  	3.9828e+14	7.232000e-02	9.429917e-01	9.412345e+01
0.00  	0.00  	3.9186e+14	7.120000e-02	9.377365e-01	9.333443e+01
0.00  	0.00  	3.8554e+14	7.037000e-02	9.426389e-01	8.582433e+01
0.00  	0.00  	3.7932e+14	6.950000e-02	9.465748e-01	7.789092e+01
0.00  	0.00  	3.7321e+14	7.306000e-02	9.377166e-01	9.929355e+01
0.00  	0.00  	3.6719e+14	7.288000e-02	9.397732e-01	9.539216e+01
0.00  	0.00  	3.6127e+14	7.416000e-02	9.366640e-01	9.705219e+01
0.00  	0.00  	3.5544e+14	7.278000e-02	9.346042e-01	9.862700e+01
0.00  	0.00  	3.4971e+14	7.644000e-02	9.329306e-01	1.085254e+02
0.00  	0.00  	3.4407e+14	7.640000e-02	9.342068e-01	1.039124e+02
0.00  	0.00  	3.3852e+14	7.463000e-02	9.319022e-01	1.078311e+02
0.00  	0.00  	3.3306e+14	7.655000e-02	9.301995e-01	1.061027e+02
0.00  	0.00  	3.2769e+14	7.523000e-02	9.354156e-01	1.037329e+02
0.00  	0.00  	3.2241e+14	7.571000e-02	9.321497e-01	1.064080e+02
0.00  	0.00  	3.1721e+14	7.460000e-02	9.348708e-01	1.034701e+02
0.00  	0.00  	3.1209e+14	7.617000e-02	9.348335e-01	1.082938e+02
0.00  	0.00  	3.0706e+14	7.351000e-02	9.358206e-01	9.420096e+01
0.00  	0.00  	3.0211e+14	7.292000e-02	9.371847e-01	9.210443e+01
0.00  	0.00  	2.9724e+14	7.283000e-02	9.395096e-01	9.196068e+01
0.00  	0.00  	2.9245e+14	7.147000e-02	9.377397e-01	8.985083e+01
0.00  	0.00  	2.8773e+14	6.902000e-02	9.444549e-01	7.982839e+01
0.00  	0.00  	2.8309e+14	6.442000e-02	9.477946e-01	6.478188e+01
0.00  	0.00  	2.7852e+14	4.661000e-02	9.831355e-01	1.517009e+01
0.00  	0.00  	2.7403e+14	4.055000e-02	9.949499e-01	1.258672e+00
0.00  	0.00  	2.6961e+14	4.882000e-02	9.723301e-01	2.780601e+01
0.00  	0.00  	2.6527e+14	6.568000e-02	9.496490e-01	6.994808e+01
0.00  	0.00  	2.6099e+14	6.415000e-02	9.541170e-01	6.020012e+01
0.00  	0.00  	2.5678e+14	5.235000e-02	9.699483e-01	3.275659e+01
0.00  	0.00  	2.5264e+14	5.698000e-02	9.598289e-01	4.766051e+01
0.00  	0.00  	2.4857e+14	6.098000e-02	9.581858e-01	5.595449e+01
0.00  	0.00  	2.4456e+14	5.617000e-02	9.641025e-01	4.639996e+01
0.00  	0.00  	2.4061e+14	6.409000e-02	9.569575e-01	5.733574e+01
0.00  	0.00  	2.3673e+14	6.484000e-02	9.551320e-01	6.610392e+01
0.00  	0.00  	2.3292e+14	6.735000e-02	9.546720e-01	7.298686e+01
0.00  	0.00  	2.2916e+14	6.820000e-02	9.562908e-01	7.451924e+01
0.00  	0.00  	2.2547e+14	6.953000e-02	9.571378e-01	7.768411e+01
0.00  	0.00  	2.2183e+14	6.711000e-02	9.579145e-01	7.640153e+01
0.00  	0.00  	2.1825e+14	6.752000e-02	9.568118e-01	7.729270e+01
0.00  	0.00  	2.1473e+14	6.911000e-02	9.613176e-01	7.697771e+01
0.00  	0.00  	2.1127e+14	6.825000e-02	9.640100e-01	7.838319e+01
0.00  	0.00  	2.0786e+14	6.771000e-02	9.672369e-01	7.031684e+01
0.00  	0.00  	2.0451e+14	6.571000e-02	9.666670e-01	6.673617e+01
0.00  	0.00  	2.0121e+14	6.670000e-02	9.700435e-01	6.686063e+01
0.00  	0.00  	1.9797e+14	6.691000e-02	9.738461e-01	6.630425e+01
0.00  	0.00  	1.9478e+14	6.911000e-02	9.740856e-01	6.920665e+01
0.00  	0.00  	1.9164e+14	6.931000e-02	9.748497e-01	7.152012e+01
0.00  	0.00  	1.8855e+14	6.962000e-02	9.774049e-01	7.120584e+01
0.00  	0.00  	1.8551e+14	6.854000e-02	9.833705e-01	6.760956e+01
0.00  	0.00  	1.8251e+14	6.833000e-02	9.867113e-01	6.634947e+01
0.00  	0.00  	1.7957e+14	6.875000e-02	9.882820e-01	6.338635e+01
0.00  	0.00  	1.7668e+14	6.788000e-02	9.911303e-01	6.312930e+01
0.00  	0.00  	1.7383e+14	6.834000e-02	9.914838e-01	6.153822e+01
0.00  	0.00  	1.7102e+14	6.690000e-02	9.932685e-01	5.979632e+01
0.00  	0.00  	1.6827e+14	6.731000e-02	9.949487e-01	5.904478e+01
0.00  	0.00  	1.6555e+14	6.696000e-02	9.959020e-01	5.847779e+01
0.00  	0.00  	1.6288e+14	6.707000e-02	9.956613e-01	5.967279e+01
0.00  	0.00  	1.6026e+14	6.658000e-02	9.947897e-01	5.896408e+01
0.00  	0.00  	1.5767e+14	6.585000e-02	9.917967e-01	5.842762e+01
0.00  	0.00  	1.5513e+14	6.540000e-02	9.917673e-01	5.811894e+01
0.00  	0.00  	1.5263e+14	6.651000e-02	9.889999e-01	5.657567e+01
0.00  	0.00  	1.5017e+14	6.442000e-02	9.859442e-01	5.735605e+01
0.00  	0.00  	1.4774e+14	6.357000e-02	9.826082e-01	5.644038e+01
0.00  	0.00  	1.4536e+14	6.155000e-02	9.819023e-01	5.232649e+01
0.00  	0.00  	1.4302e+14	6.201000e-02	9.778910e-01	5.284082e+01
0.00  	0.00  	1.4071e+14	5.781000e-02	9.735783e-01	4.442554e+01
0.00  	0.00  	1.3844e+14	4.612000e-02	9.802027e-01	1.885628e+01
0.00  	0.00  	1.3621e+14	4.123000e-02	9.907550e-01	2.286589e+00
0.00  	0.00  	1.3401e+14	4.495000e-02	9.865039e-01	8.554984e+00
0.00  	0.00  	1.3185e+14	4.469000e-02	9.831288e-01	8.930229e+00
0.00  	0.00  	1.2973e+14	4.428000e-02	9.809576e-01	8.949495e+00
0.00  	0.00  	1.2763e+14	4.296000e-02	9.836951e-01	9.444897e+00
0.00  	0.00  	1.2558e+14	4.391000e-02	9.809686e-01	1.004286e+01
