# Radiation power file
# File columns: 
# 	 1 Incidence zenith angle (deg) 
# 	 2 Incidence azimuth angle (deg) 
# 	 3 Wavelength (um)
# 	 4 Photon's relative power intensity 
# 	 5 Photon's relative energy flux 
# 	 6 Mean distance (um) traveled by photon 
# 
0.00  	0.00  	3.0000e-01	1.586300e-01	1.000000e+00	0.000000e+00
0.00  	0.00  	3.1429e-01	1.400400e-01	1.000000e+00	0.000000e+00
0.00  	0.00  	3.2857e-01	7.264000e-01	1.000000e+00	0.000000e+00
0.00  	0.00  	3.4286e-01	2.418000e-01	1.000000e+00	0.000000e+00
0.00  	0.00  	3.5714e-01	8.539800e-01	1.000000e+00	0.000000e+00
0.00  	0.00  	3.7143e-01	9.346200e-01	1.000000e+00	0.000000e+00
0.00  	0.00  	3.8571e-01	9.620500e-01	1.000000e+00	0.000000e+00
0.00  	0.00  	4.0000e-01	9.705300e-01	1.000000e+00	0.000000e+00
0.00  	0.00  	4.1429e-01	1.512900e-01	1.000000e+00	0.000000e+00
0.00  	0.00  	4.2857e-01	9.503600e-01	1.000000e+00	0.000000e+00
0.00  	0.00  	4.4286e-01	9.653400e-01	1.000000e+00	0.000000e+00
0.00  	0.00  	4.5714e-01	9.718300e-01	1.000000e+00	0.000000e+00
0.00  	0.00  	4.7143e-01	9.757600e-01	1.000000e+00	0.000000e+00
0.00  	0.00  	4.8571e-01	9.785400e-01	1.000000e+00	0.000000e+00
0.00  	0.00  	5.0000e-01	9.807500e-01	1.000000e+00	0.000000e+00
0.00  	0.00  	5.1429e-01	9.834100e-01	1.000000e+00	0.000000e+00
0.00  	0.00  	5.2857e-01	9.858200e-01	1.000000e+00	0.000000e+00
0.00  	0.00  	5.4286e-01	9.567700e-01	1.000000e+00	0.000000e+00
0.00  	0.00  	5.5714e-01	9.668000e-01	1.000000e+00	0.000000e+00
0.00  	0.00  	5.7143e-01	9.806600e-01	1.000000e+00	0.000000e+00
0.00  	0.00  	5.8571e-01	9.839000e-01	1.000000e+00	0.000000e+00
0.00  	0.00  	6.0000e-01	9.859700e-01	1.000000e+00	0.000000e+00
0.00  	0.00  	6.1429e-01	9.874400e-01	1.000000e+00	0.000000e+00
0.00  	0.00  	6.2857e-01	9.873100e-01	1.000000e+00	0.000000e+00
0.00  	0.00  	6.4286e-01	9.884800e-01	1.000000e+00	0.000000e+00
0.00  	0.00  	6.5714e-01	9.892500e-01	1.000000e+00	0.000000e+00
0.00  	0.00  	6.7143e-01	9.902300e-01	1.000000e+00	0.000000e+00
0.00  	0.00  	6.8571e-01	9.900500e-01	1.000000e+00	0.000000e+00
0.00  	0.00  	7.0000e-01	9.914800e-01	1.000000e+00	0.000000e+00
0.00  	0.00  	7.1429e-01	9.912600e-01	1.000000e+00	0.000000e+00
0.00  	0.00  	7.2857e-01	9.920200e-01	1.000000e+00	0.000000e+00
0.00  	0.00  	7.4286e-01	9.927200e-01	1.000000e+00	0.000000e+00
0.00  	0.00  	7.5714e-01	9.930200e-01	1.000000e+00	0.000000e+00
0.00  	0.00  	7.7143e-01	9.933400e-01	1.000000e+00	0.000000e+00
0.00  	0.00  	7.8571e-01	9.942900e-01	1.000000e+00	0.000000e+00
0.00  	0.00  	8.0000e-01	9.942700e-01	1.000000e+00	0.000000e+00
0.00  	0.00  	8.1429e-01	9.353900e-01	1.000000e+00	0.000000e+00
0.00  	0.00  	8.2857e-01	9.823100e-01	1.000000e+00	0.000000e+00
0.00  	0.00  	8.4286e-01	9.898700e-01	1.000000e+00	0.000000e+00
0.00  	0.00  	8.5714e-01	9.914000e-01	1.000000e+00	0.000000e+00
0.00  	0.00  	8.7143e-01	9.924900e-01	1.000000e+00	0.000000e+00
0.00  	0.00  	8.8571e-01	9.924600e-01	1.000000e+00	0.000000e+00
0.00  	0.00  	9.0000e-01	9.932600e-01	1.000000e+00	0.000000e+00
0.00  	0.00  	9.1429e-01	9.930800e-01	1.000000e+00	0.000000e+00
0.00  	0.00  	9.2857e-01	9.931200e-01	1.000000e+00	0.000000e+00
0.00  	0.00  	9.4286e-01	9.931900e-01	1.000000e+00	0.000000e+00
0.00  	0.00  	9.5714e-01	9.938800e-01	1.000000e+00	0.000000e+00
0.00  	0.00  	9.7143e-01	9.937100e-01	1.000000e+00	0.000000e+00
0.00  	0.00  	9.8571e-01	9.935800e-01	1.000000e+00	0.000000e+00
0.00  	0.00  	1.0000e+00	9.940700e-01	1.000000e+00	0.000000e+00
